LabVIEW Measurement	
Writer_Version	2
Reader_Version	2
Separator	Tab
Decimal_Separator	.
Multi_Headings	No
X_Columns	No
Time_Pref	Absolute
Operator	Alexander
Date	2024/07/22
Time	18:08:05.269824981689453125
***End_of_Header***	
	
Channels	3			
Samples	1	1	1	
Date	2024/07/22	2024/07/22	2024/07/22	
Time	18:08:05.269824981689453125	18:08:05.4559645652770996094	18:08:05.4559645652770996094	
X_Dimension	Time	Time	Time	
X0	0.0000000000000000E+0	0.0000000000000000E+0	0.0000000000000000E+0	
Delta_X	1.000000	1.000000	1.000000	
***End_of_Header***				
X_Value	Untitled	Untitled 1	Untitled 2	Comment
	0.000000	43.011000	2.158000
	42.107000	43.954000	2.162000
	89.216000	43.869000	2.162000
	137.331000	43.728000	2.166000
	184.443000	43.987000	1.167000
	231.590000	44.412000	1.162000
	278.736000	44.316000	1.159000
	326.896000	45.539000	1.170000
	375.058000	45.629000	1.170000
	423.194000	43.947000	2.155000
	470.306000	43.879000	2.155000
	518.442000	43.979000	2.158000
	565.574000	43.990000	1.178000
	613.739000	45.496000	1.166000
	661.904000	45.202000	1.176000
	709.064000	44.418000	1.166000
	756.280000	45.175000	1.166000
	803.408000	43.595000	2.154000
	806.501000	43.595000	2.149000
	851.604000	43.880000	2.153000
	898.734000	43.969000	2.153000
	946.846000	43.994000	1.179000
	995.087000	45.482000	1.166000
	1043.244000	45.205000	1.175000
	1091.411000	45.514000	1.157000
	1138.573000	44.476000	2.514000
	1185.700000	43.828000	2.514000
	1233.825000	43.465000	2.503000
	1280.949000	43.816000	2.503000
	1329.059000	43.973000	1.374000
	1377.218000	45.056000	1.346000
	1424.338000	44.165000	1.358000
	1472.510000	45.067000	1.347000
	1520.715000	45.604000	1.347000
	1568.861000	43.790000	2.512000
	1615.993000	43.469000	2.512000
	1663.114000	43.366000	2.519000
	1711.244000	43.972000	1.368000
	1759.601000	45.017000	1.354000
	1805.727000	44.153000	1.354000
	1853.904000	45.076000	1.354000
	1903.081000	45.590000	2.504000
	1950.226000	43.575000	2.504000
	1997.335000	43.192000	2.516000
	2045.466000	43.833000	2.516000
	2093.597000	43.992000	1.353000
	2140.775000	45.035000	1.369000
	2187.929000	44.174000	1.372000
	2236.085000	45.077000	1.373000
	2284.269000	45.607000	1.373000
	2332.402000	43.525000	3.095000
	2380.511000	43.026000	3.080000
	2428.644000	43.164000	3.117000
	2476.777000	43.766000	1.669000
	2522.923000	43.643000	1.685000
	2569.017000	42.959000	1.685000
	2616.223000	43.652000	1.685000
	2664.415000	44.385000	1.685000
	2711.540000	43.155000	3.161000
	2758.636000	42.784000	3.059000
	2806.758000	43.551000	3.087000
	2854.951000	43.456000	1.683000
	2903.110000	44.314000	1.680000
	2949.222000	43.310000	1.681000
	2997.381000	44.335000	1.679000
	3045.573000	45.473000	1.679000
	3093.758000	43.541000	3.126000
	3140.867000	43.033000	3.065000
	3188.978000	43.157000	3.062000
	3238.130000	43.944000	1.668000
	3284.285000	43.988000	1.668000
	3330.381000	42.960000	1.689000
	3378.548000	44.339000	1.675000
	3426.749000	45.358000	1.675000
	3475.880000	43.236000	3.992000
	3523.967000	42.698000	3.995000
	3572.068000	42.937000	4.018000
	3622.207000	43.831000	2.168000
	3669.342000	43.679000	2.188000
	3715.418000	42.809000	2.188000
	3762.556000	43.710000	2.186000
	3811.767000	45.377000	2.142000
	3860.882000	43.240000	3.991000
	3908.963000	42.697000	3.944000
	3958.065000	43.244000	3.956000
	4007.219000	43.924000	2.155000
	4054.398000	43.676000	2.159000
	4100.470000	42.826000	2.159000
	4148.612000	43.697000	2.189000
	4196.912000	45.298000	2.189000
	4246.042000	42.928000	4.004000
	4294.152000	42.534000	4.032000
	4342.258000	43.195000	4.040000
	4391.403000	43.425000	3.972000
	4438.548000	43.675000	2.170000
	4485.643000	42.813000	2.176000
	4532.767000	43.689000	2.169000
	4581.972000	45.391000	2.169000
	4631.087000	42.938000	5.450000
	4681.161000	42.484000	5.391000
	4730.235000	42.933000	5.381000
	4781.380000	43.404000	5.381000
	4828.499000	42.875000	2.902000
	4874.565000	42.421000	2.890000
	4922.665000	42.882000	2.908000
	4970.854000	44.288000	2.900000
	5020.956000	42.849000	5.397000
	5070.032000	42.412000	5.422000
	5120.132000	42.722000	5.326000
	5170.293000	43.410000	5.413000
	5217.406000	42.867000	2.898000
	5264.473000	42.553000	2.888000
	5311.567000	43.196000	2.898000
	5360.779000	44.308000	2.889000
	5410.889000	42.937000	5.405000
	5459.951000	42.504000	5.366000
	5510.042000	42.931000	5.401000
	5560.209000	43.501000	5.345000
	5607.318000	43.172000	2.928000
	5654.389000	42.544000	2.895000
	5702.522000	43.179000	2.896000
	5751.743000	45.249000	2.901000
	5802.848000	42.700000	7.090000
	5853.913000	42.320000	7.135000
	5904.994000	42.709000	7.061000
	5958.163000	43.846000	7.092000
	6006.268000	42.638000	3.836000
	6053.336000	42.403000	3.828000
	6101.417000	42.832000	3.811000
	6152.644000	45.084000	3.834000
	6203.754000	42.565000	7.068000
	6253.819000	42.315000	7.155000
	6305.922000	42.668000	7.092000
	6358.126000	43.846000	7.076000
	6406.245000	42.823000	3.844000
	6453.302000	42.412000	3.833000
	6502.390000	42.854000	3.864000
	6552.638000	45.089000	3.851000
	6603.749000	42.695000	7.186000
	6654.805000	42.297000	7.153000
	6705.876000	42.730000	7.135000
	6759.038000	43.837000	7.114000
	6807.137000	42.814000	3.826000
	6854.200000	42.347000	3.813000
	6902.306000	42.838000	3.862000
	6953.509000	45.076000	3.877000
	7005.587000	42.434000	8.905000
	7058.661000	42.326000	8.942000
	7111.753000	42.437000	8.937000
	7165.912000	43.791000	8.883000
	7214.985000	42.443000	4.803000
	7263.039000	42.282000	4.824000
	7312.119000	42.574000	4.794000
	7363.356000	44.860000	4.782000
	7416.440000	42.416000	8.917000
	7468.489000	42.295000	8.900000
	7521.565000	42.445000	8.908000
	7575.717000	43.348000	9.007000
	7623.777000	42.470000	4.815000
	7672.833000	42.272000	4.809000
	7721.904000	42.483000	4.821000
	7773.116000	44.813000	4.779000
	7826.204000	42.472000	8.925000
	7878.266000	42.297000	8.865000
	7931.332000	42.541000	8.838000
	7985.485000	43.788000	8.859000
	8034.565000	42.470000	4.811000
	8082.617000	42.303000	4.776000
	8131.691000	42.461000	4.824000
	8181.987000	44.043000	4.800000
	8237.074000	42.433000	10.931000
	8291.124000	42.239000	11.021000
	8346.192000	42.358000	10.988000
	8402.338000	43.740000	10.969000
	8452.407000	42.364000	5.915000
	8502.447000	42.327000	5.901000
	8552.516000	42.488000	5.887000
	8603.750000	43.951000	5.877000
	8657.832000	42.324000	10.944000
	8712.890000	42.320000	10.960000
	8767.946000	42.357000	10.939000
	8824.098000	43.744000	10.955000
	8874.166000	42.350000	5.913000
	8923.214000	42.284000	5.927000
	8973.282000	42.387000	5.916000
	9025.500000	44.675000	5.935000
	9080.575000	42.421000	10.929000
	9134.627000	42.307000	10.920000
	9189.695000	42.351000	10.938000
	9245.827000	43.732000	10.948000
	9295.899000	42.409000	5.905000
	9345.949000	42.314000	5.906000
	9395.019000	42.361000	5.897000
	9447.207000	43.952000	5.889000
	9504.281000	42.326000	13.325000
	9560.351000	42.264000	13.235000
	9618.410000	42.300000	13.339000
	9676.549000	43.281000	13.369000
	9726.609000	42.328000	7.164000
	9777.658000	42.239000	7.171000
	9828.713000	42.330000	7.176000
	9882.900000	44.614000	7.245000
	9939.952000	42.280000	13.282000
	9997.005000	42.342000	13.275000
	10054.074000	42.312000	13.254000
	62403.204000	42.790000	163.662000
	62755.381000	43.504000	307.134000
	0.000000	42.559000	239.302000
	0.000000	42.559000	239.302000
	328.182000	43.342000	302.181000
	680.412000	46.707000	303.504000
	1026.616000	43.605000	301.652000
	1376.830000	42.642000	305.934000
	1584.989000	44.201000	162.759000
	1801.135000	47.372000	166.937000
	2009.261000	43.311000	163.491000
	2216.434000	42.732000	163.055000
	2567.642000	43.277000	305.861000
	2917.808000	47.015000	301.773000
	3273.038000	43.731000	309.847000
