LabVIEW Measurement	
Writer_Version	2
Reader_Version	2
Separator	Tab
Decimal_Separator	.
Multi_Headings	No
X_Columns	No
Time_Pref	Absolute
Operator	Alexander
Date	2024/07/25
Time	13:51:40.6995720863342285156
***End_of_Header***	
	
Channels	3			
Samples	1	1	1	
Date	2024/07/25	2024/07/25	2024/07/25	
Time	13:51:40.6995720863342285156	13:51:54.8615183830261230469	13:51:53.5464482307434082031	
X_Dimension	Time	Time	Time	
X0	0.0000000000000000E+0	0.0000000000000000E+0	0.0000000000000000E+0	
Delta_X	1.000000	1.000000	1.000000	
***End_of_Header***				
X_Value	Untitled	Untitled 1	Untitled 2	Comment
	2.840000	45.081000	2.166000
	83.224000	43.989000	2.173000
	133.319000	43.870000	2.148000
	185.457000	43.940000	2.162000
	236.345000	43.912000	1.177000
	288.810000	45.527000	1.160000
	338.971000	45.196000	1.168000
	391.841000	45.556000	1.167000
	442.010000	45.697000	2.148000
	494.277000	43.446000	2.162000
	544.382000	43.383000	2.151000
	594.480000	43.454000	2.154000
	644.596000	43.483000	1.171000
	694.806000	44.422000	1.169000
	746.944000	45.182000	1.170000
	799.100000	45.556000	1.169000
	849.318000	44.570000	2.153000
	899.426000	43.441000	2.154000
	951.526000	43.690000	2.152000
	1001.618000	43.978000	2.143000
	1053.713000	44.013000	1.160000
	1103.855000	44.636000	1.160000
	1156.004000	45.190000	1.164000
	1208.201000	45.494000	1.162000
	1258.355000	45.625000	2.510000
	1310.498000	43.376000	2.510000
	1360.578000	43.091000	2.536000
	1412.679000	43.845000	2.535000
	1462.771000	43.999000	1.353000
	1514.902000	44.174000	1.360000
	1565.015000	44.168000	1.359000
	1615.135000	45.086000	1.374000
	1667.277000	45.614000	2.500000
	1719.382000	43.432000	2.523000
	1769.458000	43.087000	2.521000
	1819.608000	43.351000	2.504000
	1871.702000	43.981000	1.365000
	1923.833000	45.138000	1.371000
	1973.925000	44.184000	1.370000
	2026.061000	45.086000	1.357000
	2078.267000	45.578000	2.537000
	2128.397000	43.841000	2.516000
	2178.483000	43.099000	2.512000
	2230.580000	43.796000	2.518000
	2282.680000	43.991000	1.359000
	2332.807000	45.130000	1.349000
	2384.928000	44.150000	1.367000
	2435.061000	45.106000	1.351000
	2487.206000	45.666000	3.092000
	2539.302000	43.570000	3.066000
	2589.396000	42.763000	3.096000
	2641.476000	43.146000	3.066000
	2693.569000	43.956000	1.655000
	2743.672000	44.356000	1.654000
	2793.744000	42.946000	1.641000
	2843.838000	43.647000	1.667000
	2895.980000	45.511000	3.066000
	2948.084000	43.148000	3.059000
	2998.139000	42.764000	3.057000
	3050.213000	43.144000	3.068000
	3102.305000	43.457000	1.663000
	3152.425000	44.100000	1.677000
	3202.491000	43.223000	1.648000
	3252.597000	44.333000	1.650000
	3304.758000	45.543000	3.053000
	3356.859000	43.150000	3.061000
	3406.918000	42.767000	3.087000
	3458.998000	43.162000	3.054000
	3511.091000	43.554000	1.674000
	3561.198000	43.665000	1.641000
	3611.273000	43.256000	1.665000
	3661.405000	43.802000	1.646000
	3711.613000	44.398000	3.960000
	3763.698000	43.228000	4.052000
	3815.759000	42.544000	3.995000
	3867.823000	42.919000	4.019000
	3919.915000	43.928000	2.167000
	3972.003000	43.222000	2.141000
	4020.052000	42.619000	2.179000
	4072.142000	43.699000	2.146000
	4124.277000	45.037000	4.000000
	4176.385000	42.937000	3.994000
	4228.428000	42.545000	4.003000
	4280.505000	42.923000	4.027000
	4332.616000	43.427000	2.144000
	4382.702000	43.719000	2.145000
	4432.754000	42.650000	2.143000
	4482.831000	43.217000	2.143000
	4535.002000	44.348000	3.994000
	4587.119000	43.262000	4.006000
	4639.175000	42.719000	4.008000
	4691.240000	43.262000	3.986000
	4743.334000	43.954000	2.139000
	4795.416000	43.547000	2.167000
	4843.464000	42.826000	2.161000
	4895.593000	43.686000	2.158000
	4947.746000	45.415000	5.386000
	5001.820000	42.724000	5.344000
	5053.867000	42.528000	5.385000
	5107.933000	42.952000	5.372000
	5162.025000	43.917000	2.899000
	5212.087000	42.864000	2.892000
	5262.124000	42.428000	2.881000
	5314.183000	43.184000	2.882000
	5366.313000	44.276000	5.374000
	5418.508000	42.968000	5.384000
	5472.560000	42.502000	5.372000
	5524.627000	42.949000	5.386000
	5580.728000	43.906000	2.882000
	5630.797000	42.869000	2.893000
	5680.838000	42.550000	2.896000
	5730.903000	42.862000	2.907000
	5785.047000	44.280000	5.379000
	5837.109000	42.970000	5.378000
	5891.162000	42.513000	5.300000
	5943.250000	42.958000	5.395000
	5997.363000	43.913000	2.922000
	6049.434000	42.869000	2.881000
	6099.495000	42.504000	2.875000
	6149.640000	42.860000	2.891000
	6203.801000	45.211000	7.107000
	6257.863000	42.558000	7.040000
	6311.910000	42.295000	7.064000
	6365.972000	42.561000	7.024000
	6422.071000	43.393000	3.812000
	6474.129000	42.846000	3.817000
	6524.188000	42.381000	3.860000
	6576.264000	42.660000	3.800000
	6630.404000	45.090000	7.052000
	6684.473000	42.721000	7.090000
	6740.514000	42.380000	7.139000
	6794.564000	42.730000	7.064000
	6850.706000	43.393000	3.807000
	6900.762000	42.846000	3.805000
	6952.816000	42.433000	3.821000
	7004.870000	42.854000	3.802000
	7059.019000	45.091000	7.083000
	7113.076000	42.598000	7.093000
	7167.129000	42.340000	7.104000
	7223.234000	42.536000	7.047000
	7277.407000	43.383000	3.815000
	7329.502000	42.810000	3.786000
	7379.566000	42.339000	3.833000
	7431.616000	42.646000	3.808000
	7485.752000	44.188000	8.895000
	7541.820000	42.500000	8.883000
	7597.862000	42.290000	8.881000
	7653.912000	42.534000	8.878000
	7712.010000	43.816000	4.828000
	7764.057000	42.543000	4.769000
	7816.093000	42.373000	4.814000
	7868.143000	42.533000	4.810000
	7922.269000	44.871000	8.896000
	7980.343000	42.485000	8.858000
	8036.402000	42.311000	8.861000
	8092.450000	42.450000	8.922000
	8148.557000	43.361000	4.793000
	8202.645000	42.608000	4.790000
	8254.678000	42.288000	4.767000
	8306.760000	42.639000	4.775000
	8360.903000	44.865000	8.859000
	8416.981000	42.541000	8.900000
	8473.015000	42.340000	8.861000
	8529.087000	42.556000	8.877000
	8587.223000	43.818000	4.846000
	8639.277000	42.539000	4.779000
	8691.333000	42.282000	4.810000
	8745.379000	42.581000	4.796000
	8799.512000	44.889000	10.940000
	8857.565000	42.340000	10.910000
	8915.597000	42.327000	10.969000
	8973.634000	42.444000	10.937000
	9033.720000	43.593000	5.901000
	9087.765000	42.377000	5.901000
	9139.802000	42.246000	5.894000
	9193.837000	42.421000	5.902000
	9248.034000	43.944000	10.911000
	9306.081000	42.358000	10.889000
	9364.120000	42.254000	10.906000
	9422.157000	42.345000	10.906000
	9482.293000	43.313000	5.879000
	9536.340000	42.384000	5.892000
	9588.384000	42.293000	5.897000
	9642.417000	42.466000	5.923000
	9698.534000	44.729000	10.919000
	9756.593000	42.401000	10.976000
	9814.640000	42.297000	10.929000
	9872.702000	42.446000	10.940000
	9932.798000	43.769000	5.887000
	9984.842000	42.478000	5.918000
	10038.874000	42.357000	5.884000
	10092.915000	42.473000	5.923000
	10147.116000	44.070000	13.311000
	10209.164000	42.346000	13.249000
	10269.204000	42.354000	13.293000
	10329.247000	42.294000	13.208000
	10391.344000	43.286000	7.179000
	10445.399000	42.322000	7.142000
	10499.429000	42.266000	7.220000
	10553.457000	42.404000	7.157000
	10609.724000	43.891000	13.282000
	10671.772000	42.395000	13.275000
	10731.809000	42.281000	13.219000
	10791.847000	42.304000	13.301000
	10853.938000	43.693000	7.144000
	10907.983000	42.389000	7.148000
	10964.010000	42.304000	7.137000
	11018.041000	42.300000	7.120000
	11074.173000	44.534000	13.265000
	11134.217000	42.298000	13.196000
	11196.250000	42.340000	13.287000
	11256.285000	42.311000	13.216000
	11318.386000	43.264000	7.176000
	11372.457000	42.341000	7.197000
	11426.492000	42.342000	7.172000
	11480.527000	42.418000	7.157000
	11538.656000	44.589000	15.842000
	11600.694000	42.271000	15.872000
	11664.736000	42.298000	15.854000
	11726.767000	42.358000	16.436000
	11792.867000	43.650000	8.570000
	11848.920000	42.264000	8.599000
	11904.959000	42.343000	8.522000
	11961.004000	42.279000	8.556000
	12019.794000	44.359000	15.871000
	12081.845000	42.267000	15.848000
	12143.878000	42.465000	15.872000
	12207.917000	42.295000	16.408000
	12272.009000	43.645000	8.551000
	12328.045000	42.264000	8.833000
	12384.074000	42.352000	8.551000
	12440.102000	42.317000	8.548000
	12498.213000	44.381000	15.877000
	12562.255000	42.267000	15.863000
	12624.293000	42.381000	15.863000
	12688.329000	42.276000	15.788000
	12752.417000	43.631000	8.550000
	12808.467000	42.258000	8.549000
	12864.497000	42.273000	8.527000
	12920.540000	42.304000	8.536000
	12978.704000	44.382000	20.293000
	13044.754000	42.228000	19.592000
	13112.789000	42.406000	19.119000
	13178.844000	42.308000	19.496000
	13246.945000	43.191000	10.533000
	13304.994000	42.245000	10.798000
	13363.028000	42.497000	11.049000
	13421.058000	42.257000	10.569000
	13481.170000	44.291000	19.441000
	13547.245000	42.256000	19.184000
	13615.275000	42.506000	19.025000
	13681.316000	42.301000	19.876000
	13749.651000	43.575000	10.413000
	13807.692000	42.315000	10.788000
	13865.727000	42.462000	11.009000
	13923.751000	42.309000	10.967000
	13983.865000	43.687000	20.419000
	14049.920000	42.235000	20.425000
	14117.955000	42.383000	20.425000
	14185.993000	42.267000	21.072000
	14254.084000	43.574000	10.563000
	14312.121000	42.315000	11.176000
	14372.150000	42.540000	10.508000
	14430.176000	42.320000	10.277000
	14488.294000	43.685000	23.825000
	14560.337000	42.353000	25.000000
	14632.430000	42.411000	23.936000
	14702.468000	42.304000	24.018000
	14776.559000	43.521000	12.708000
	14834.590000	42.256000	13.118000
	14896.616000	42.398000	13.138000
	14956.637000	42.364000	15.684000
	15020.738000	44.145000	24.148000
	15092.776000	42.235000	23.598000
	15164.809000	42.444000	24.698000
	15236.842000	42.239000	25.123000
	15308.978000	43.523000	14.485000
	15371.020000	42.277000	13.425000
	15433.046000	42.369000	12.615000
	15491.071000	42.331000	13.377000
	15555.240000	44.146000	24.637000
	15627.280000	42.353000	28.984000
	15703.312000	42.566000	24.173000
	15775.347000	42.279000	24.710000
	15847.475000	43.513000	13.030000
	15907.520000	42.294000	13.350000
	15969.552000	42.402000	12.985000
	16029.584000	42.326000	14.854000
	16093.695000	44.151000	14.854000
	16183.731000	42.384000	31.363000
	16261.766000	42.781000	31.363000
	16351.822000	42.323000	31.747000
	16431.924000	43.431000	17.023000
	16495.953000	42.610000	16.877000
	16561.984000	42.835000	16.682000
	16626.012000	42.312000	22.531000
	16696.114000	44.044000	31.576000
	16776.155000	42.380000	31.576000
	16866.196000	42.466000	31.326000
	16946.231000	42.308000	31.480000
	17024.336000	43.436000	16.897000
	17090.373000	42.445000	24.761000
	17162.402000	42.690000	17.056000
	17226.437000	42.338000	16.743000
	17292.558000	44.051000	30.438000
	17370.598000	42.348000	31.639000
	17448.702000	42.645000	31.553000
	17528.746000	42.267000	30.821000
	17606.837000	43.412000	23.102000
	17678.872000	42.410000	16.669000
	17742.897000	42.493000	16.923000
	17806.927000	42.387000	23.958000
	17879.052000	43.954000	23.958000
	17967.101000	42.392000	40.666000
	18057.141000	42.966000	42.610000
	18147.173000	0.000000	0.000000
