LabVIEW Measurement	
Writer_Version	2
Reader_Version	2
Separator	Tab
Decimal_Separator	.
Multi_Headings	No
X_Columns	No
Time_Pref	Absolute
Operator	Alexander
Date	2024/07/19
Time	17:39:06.1682109832763671875
***End_of_Header***	
	
Channels	3			
Samples	1	1	1	
Date	2024/07/19	2024/07/19	2024/07/19	
Time	17:39:06.1682109832763671875	17:39:06.5325198173522949219	17:39:06.5325198173522949219	
X_Dimension	Time	Time	Time	
X0	0.0000000000000000E+0	0.0000000000000000E+0	0.0000000000000000E+0	
Delta_X	1.000000	1.000000	1.000000	
***End_of_Header***				
X_Value	Untitled	Untitled 1	Untitled 2	Comment
	0.000000	42.684000	6.208000
	28.070000	42.696000	6.208000
	0.000000	42.696000	6.160000
	44.107000	43.165000	6.160000
	93.179000	42.667000	6.138000
	142.284000	42.833000	6.156000
	191.407000	43.174000	6.182000
	0.000000	43.103000	74.630000
	2.277000	43.103000	74.630000
	87.412000	43.323000	6.288000
	137.519000	43.690000	6.227000
	187.630000	43.345000	6.331000
	236.736000	43.331000	6.173000
	0.000000	44.080000	6.255000
	2.165000	44.080000	6.255000
	101.331000	43.817000	6.247000
	0.000000	0.000000	3.922000
	46.124000	43.949000	2.119000
	94.308000	45.419000	2.119000
	96.452000	45.419000	3.978000
	0.000000	45.419000	2.144000
	43.111000	43.475000	1.167000
	89.271000	45.510000	2.154000
	135.394000	43.472000	1.162000
	181.545000	45.652000	2.150000
	227.668000	43.490000	1.172000
	273.887000	44.547000	2.490000
	321.013000	43.951000	1.341000
	367.172000	45.657000	2.507000
	413.307000	43.463000	1.350000
	459.515000	45.672000	1.350000
	506.643000	43.876000	1.359000
	552.815000	45.567000	1.359000
	600.953000	43.451000	1.635000
	646.115000	44.408000	1.635000
	692.286000	43.461000	1.685000
	738.444000	44.430000	1.685000
	784.570000	43.467000	1.648000
	831.746000	45.359000	1.648000
	878.874000	43.449000	2.118000
	926.024000	44.364000	2.118000
	975.153000	43.441000	2.119000
	1019.307000	44.372000	2.119000
	1067.443000	43.443000	2.122000
	1113.650000	44.362000	2.122000
	1162.770000	43.427000	2.884000
	1209.922000	44.302000	2.884000
	1258.064000	43.406000	5.361000
	1260.189000	43.406000	2.888000
	1311.335000	44.313000	5.326000
	1354.486000	43.419000	5.326000
	1401.656000	44.331000	2.917000
	1451.783000	43.381000	7.069000
	1453.933000	43.381000	3.807000
	1500.093000	44.373000	3.807000
	1555.227000	43.388000	3.814000
	1598.380000	44.197000	3.814000
	1649.522000	43.380000	7.075000
	1697.707000	44.220000	3.811000
	1699.828000	44.220000	3.811000
	1701.960000	44.220000	3.811000
	1704.082000	44.220000	8.846000
	1749.202000	43.356000	8.846000
	1807.367000	44.076000	8.852000
	1853.500000	43.366000	4.772000
	1899.656000	44.060000	4.772000
	1901.788000	44.060000	4.772000
	1903.980000	44.060000	4.772000
	1906.152000	44.060000	8.886000
	1952.341000	43.364000	8.886000
	2011.562000	44.068000	10.835000
	2054.690000	43.331000	10.835000
	2105.857000	44.650000	5.861000
	2159.984000	43.335000	10.904000
	2209.153000	43.949000	5.858000
	2263.281000	43.326000	10.875000
	2313.506000	43.950000	5.880000
	2376.637000	43.276000	7.154000
	2421.803000	43.900000	7.154000
	2477.939000	43.278000	13.352000
	2586.076000	43.286000	13.201000
	2637.254000	43.907000	7.212000
	2704.392000	43.246000	8.543000
	2748.566000	43.768000	8.543000
	2750.713000	43.768000	8.543000
	2752.843000	43.768000	8.543000
	2754.977000	43.768000	8.543000
	2757.095000	43.768000	8.543000
	2759.280000	43.768000	8.543000
	2761.472000	43.768000	15.910000
	2807.624000	43.539000	15.910000
	2859.802000	43.749000	8.541000
	2918.933000	43.497000	15.826000
	2972.154000	43.754000	8.606000
	3033.343000	43.185000	18.873000
	3090.537000	43.677000	10.642000
	3150.706000	43.568000	18.652000
	3204.873000	43.690000	10.660000
	206847.068000	42.628000	257.458000
	0.000000	42.628000	2.144000
	45.107000	43.484000	1.164000
	91.252000	44.495000	2.477000
	137.377000	43.477000	1.369000
	183.530000	44.498000	3.065000
	230.657000	43.973000	1.650000
	276.841000	45.317000	1.650000
	324.969000	43.416000	2.147000
	372.197000	45.408000	2.147000
	423.325000	43.417000	2.872000
	467.484000	44.294000	2.872000
	518.611000	43.391000	7.092000
	566.757000	44.203000	3.803000
	623.887000	43.360000	4.776000
	668.141000	44.068000	4.776000
	722.254000	43.744000	10.884000
	785.411000	43.942000	13.222000
	828.522000	43.275000	13.222000
	879.656000	43.911000	7.155000
	946.781000	43.226000	8.520000
	990.930000	43.755000	8.520000
	1053.073000	43.561000	18.788000
	1107.207000	43.681000	10.461000
	1109.336000	43.681000	10.461000
	1111.457000	43.681000	10.461000
	1113.583000	43.681000	10.461000
	1115.708000	43.681000	10.461000
	1117.811000	43.681000	10.461000
	1119.928000	43.681000	10.461000
	1122.038000	43.681000	10.461000
	1124.154000	43.681000	10.461000
	1126.269000	43.681000	10.461000
	1128.381000	43.681000	10.461000
	1130.536000	43.681000	24.106000
	1174.670000	43.500000	24.106000
	1231.818000	44.158000	13.001000
	1315.951000	43.126000	40.468000
	1383.088000	43.506000	23.032000
	1494.233000	43.036000	68.303000
	1559.372000	43.573000	22.382000
	1657.533000	43.261000	54.545000
	1730.656000	43.756000	29.766000
	1892.822000	42.929000	118.798000
	1975.946000	43.190000	39.548000
	2114.127000	43.187000	95.286000
	2209.277000	43.478000	51.584000
	2520.516000	43.438000	64.017000
	2741.730000	42.812000	178.752000
	2861.873000	43.326000	76.340000
	3075.064000	42.951000	170.150000
	3210.216000	43.053000	90.926000
	3448.387000	42.730000	196.090000
	3598.555000	43.133000	107.250000
	3868.753000	42.720000	227.307000
	4032.923000	42.829000	122.141000
	4332.139000	42.668000	255.137000
	4513.294000	43.025000	138.997000
	4841.527000	42.739000	285.683000
